LabVIEW Measurement	
Writer_Version	2
Reader_Version	2
Separator	Tab
Decimal_Separator	.
Multi_Headings	Yes
X_Columns	One
Time_Pref	Relative
Operator	bjl40
Description	Time Domain Data
Date	1903/12/31
Time	19:00:00
***End_of_Header***	
	
Channels	1	
Samples	10000	
Date	1903/12/31	
Time	19:00:00	
X_Dimension	Time	
X0	0.0000000000000000E+0	
Delta_X	0.001000	
***End_of_Header***		
X_Value	Untitled	Comment
0.000000	1.559424	Tare Values:0.000000, 0.000000, 0.000000, 0.000000\0D\0A
0.001000	1.554593
0.002000	1.559102
0.003000	1.562323
0.004000	1.559102
0.005000	1.563289
0.006000	1.564900
0.007000	1.567477
0.008000	1.574563
0.009000	1.585192
0.010000	1.590345
0.011000	1.574885
0.012000	1.596465
0.013000	1.624487
0.014000	1.601941
0.015000	1.558780
0.016000	1.540098
0.017000	1.543964
0.018000	1.545252
0.019000	1.541709
0.020000	1.551694
0.021000	1.559102
0.022000	1.555559
0.023000	1.555559
0.024000	1.559746
0.025000	1.544930
0.026000	1.542675
0.027000	1.561035
0.028000	1.569731
0.029000	1.572308
0.030000	1.568443
0.031000	1.554593
0.032000	1.542997
0.033000	1.540098
0.034000	1.552338
0.035000	1.574563
0.036000	1.585514
0.037000	1.591312
0.038000	1.576495
0.039000	1.576495
0.040000	1.573596
0.041000	1.587768
0.042000	1.595499
0.043000	1.615791
0.044000	1.634472
0.045000	1.587124
0.046000	1.536555
0.047000	1.521739
0.048000	1.518840
0.049000	1.531724
0.050000	1.542997
0.051000	1.548151
0.052000	1.555237
0.053000	1.560068
0.054000	1.556203
0.055000	1.558458
0.056000	1.554271
0.057000	1.552338
0.058000	1.549117
0.059000	1.551050
0.060000	1.548473
0.061000	1.547185
0.062000	1.548473
0.063000	1.556525
0.064000	1.572630
0.065000	1.587768
0.066000	1.590667
0.067000	1.581004
0.068000	1.582293
0.069000	1.578750
0.070000	1.563611
0.071000	1.566832
0.072000	1.577461
0.073000	1.586802
0.074000	1.601296
0.075000	1.610637
0.076000	1.638981
0.077000	1.640592
0.078000	1.610959
0.079000	1.569731
0.080000	1.530758
0.081000	1.496294
0.082000	1.521095
0.083000	1.545896
0.084000	1.547829
0.085000	1.538166
0.086000	1.527215
0.087000	1.534301
0.088000	1.539776
0.089000	1.550728
0.090000	1.566510
0.091000	1.574240
0.092000	1.546218
0.093000	1.546218
0.094000	1.549761
0.095000	1.546862
0.096000	1.554271
0.097000	1.575207
0.098000	1.585192
0.099000	1.585192
0.100000	1.596787
0.101000	1.579394
0.102000	1.567154
0.103000	1.541387
0.104000	1.520773
0.105000	1.537522
0.106000	1.548473
0.107000	1.546862
0.108000	1.549439
0.109000	1.564900
0.110000	1.561679
0.111000	1.562967
0.112000	1.555881
0.113000	1.552338
0.114000	1.560068
0.115000	1.568765
0.116000	1.552016
0.117000	1.548151
0.118000	1.569087
0.119000	1.601619
0.120000	1.617723
0.121000	1.598398
0.122000	1.569731
0.123000	1.561357
0.124000	1.565222
0.125000	1.563611
0.126000	1.568765
0.127000	1.571986
0.128000	1.565866
0.129000	1.558458
0.130000	1.556203
0.131000	1.563289
0.132000	1.563933
0.133000	1.562323
0.134000	1.574563
0.135000	1.589379
0.136000	1.583259
0.137000	1.569731
0.138000	1.567154
0.139000	1.564256
0.140000	1.571986
0.141000	1.555881
0.142000	1.569731
0.143000	1.577784
0.144000	1.595821
0.145000	1.588413
0.146000	1.567154
0.147000	1.571020
0.148000	1.544930
0.149000	1.526248
0.150000	1.518196
0.151000	1.541387
0.152000	1.572952
0.153000	1.608705
0.154000	1.606772
0.155000	1.612248
0.156000	1.635116
0.157000	1.628030
0.158000	1.590345
0.159000	1.492428
0.160000	1.488885
0.161000	1.530758
0.162000	1.549761
0.163000	1.559746
0.164000	1.560390
0.165000	1.553304
0.166000	1.543319
0.167000	1.541387
0.168000	1.536878
0.169000	1.522061
0.170000	1.536878
0.171000	1.529147
0.172000	1.546862
0.173000	1.568765
0.174000	1.578106
0.175000	1.592600
0.176000	1.609671
0.177000	1.602263
0.178000	1.588735
0.179000	1.566510
0.180000	1.544930
0.181000	1.531080
0.182000	1.513687
0.183000	1.512398
0.184000	1.531080
0.185000	1.553949
0.186000	1.583903
0.187000	1.624165
0.188000	1.645423
0.189000	1.638981
0.190000	1.623199
0.191000	1.581649
0.192000	1.573596
0.193000	1.572952
0.194000	1.572308
0.195000	1.561357
0.196000	1.553304
0.197000	1.543319
0.198000	1.528825
0.199000	1.527537
0.200000	1.530758
0.201000	1.542031
0.202000	1.542997
0.203000	1.552660
0.204000	1.555559
0.205000	1.556203
0.206000	1.558136
0.207000	1.561679
0.208000	1.561357
0.209000	1.567154
0.210000	1.545574
0.211000	1.554271
0.212000	1.573274
0.213000	1.587124
0.214000	1.586158
0.215000	1.598075
0.216000	1.599686
0.217000	1.597109
0.218000	1.597431
0.219000	1.573596
0.220000	1.570375
0.221000	1.584225
0.222000	1.588413
0.223000	1.568443
0.224000	1.558458
0.225000	1.553949
0.226000	1.552016
0.227000	1.555237
0.228000	1.568765
0.229000	1.562001
0.230000	1.563289
0.231000	1.563289
0.232000	1.552338
0.233000	1.528181
0.234000	1.529147
0.235000	1.531724
0.236000	1.540743
0.237000	1.551050
0.238000	1.559102
0.239000	1.592278
0.240000	1.616435
0.241000	1.601941
0.242000	1.620300
0.243000	1.617079
0.244000	1.600652
0.245000	1.576495
0.246000	1.530114
0.247000	1.522383
0.248000	1.531724
0.249000	1.542353
0.250000	1.537522
0.251000	1.531724
0.252000	1.537522
0.253000	1.547829
0.254000	1.559102
0.255000	1.563611
0.256000	1.571986
0.257000	1.579716
0.258000	1.580038
0.259000	1.572630
0.260000	1.547829
0.261000	1.530436
0.262000	1.547829
0.263000	1.574240
0.264000	1.579072
0.265000	1.592278
0.266000	1.613536
0.267000	1.609349
0.268000	1.638659
0.269000	1.645423
0.270000	1.634150
0.271000	1.602263
0.272000	1.571342
0.273000	1.550083
0.274000	1.546540
0.275000	1.540421
0.276000	1.533657
0.277000	1.526248
0.278000	1.529469
0.279000	1.544286
0.280000	1.553949
0.281000	1.556847
0.282000	1.552338
0.283000	1.552338
0.284000	1.539132
0.285000	1.526248
0.286000	1.536878
0.287000	1.551694
0.288000	1.576817
0.289000	1.607416
0.290000	1.619012
0.291000	1.609671
0.292000	1.596143
0.293000	1.580038
0.294000	1.578428
0.295000	1.560713
0.296000	1.536233
0.297000	1.515297
0.298000	1.519807
0.299000	1.533334
0.300000	1.551372
0.301000	1.557492
0.302000	1.548473
0.303000	1.529147
0.304000	1.546218
0.305000	1.558780
0.306000	1.574240
0.307000	1.583903
0.308000	1.589379
0.309000	1.583903
0.310000	1.578428
0.311000	1.576173
0.312000	1.577784
0.313000	1.577461
0.314000	1.565222
0.315000	1.545574
0.316000	1.537522
0.317000	1.546218
0.318000	1.538488
0.319000	1.505312
0.320000	1.537844
0.321000	1.550728
0.322000	1.560713
0.323000	1.589701
0.324000	1.629641
0.325000	1.658629
0.326000	1.622877
0.327000	1.571664
0.328000	1.566188
0.329000	1.554271
0.330000	1.542997
0.331000	1.546862
0.332000	1.545896
0.333000	1.547507
0.334000	1.562323
0.335000	1.560068
0.336000	1.568121
0.337000	1.566188
0.338000	1.554271
0.339000	1.552016
0.340000	1.555237
0.341000	1.556525
0.342000	1.567799
0.343000	1.605806
0.344000	1.650577
0.345000	1.656375
0.346000	1.644457
0.347000	1.640270
0.348000	1.619334
0.349000	1.631573
0.350000	1.573596
0.351000	1.510788
0.352000	1.508211
0.353000	1.533979
0.354000	1.543642
0.355000	1.551050
0.356000	1.553304
0.357000	1.555237
0.358000	1.539454
0.359000	1.516263
0.360000	1.507889
0.361000	1.532368
0.362000	1.561035
0.363000	1.565544
0.364000	1.559424
0.365000	1.553626
0.366000	1.540098
0.367000	1.536233
0.368000	1.554915
0.369000	1.570697
0.370000	1.574885
0.371000	1.575851
0.372000	1.583903
0.373000	1.569409
0.374000	1.569409
0.375000	1.568765
0.376000	1.558458
0.377000	1.583903
0.378000	1.575207
0.379000	1.577139
0.380000	1.588413
0.381000	1.592600
0.382000	1.557492
0.383000	1.535589
0.384000	1.533657
0.385000	1.537200
0.386000	1.527859
0.387000	1.533012
0.388000	1.550406
0.389000	1.573274
0.390000	1.569087
0.391000	1.576495
0.392000	1.580360
0.393000	1.570375
0.394000	1.564578
0.395000	1.567154
0.396000	1.565222
0.397000	1.558780
0.398000	1.558136
0.399000	1.568121
0.400000	1.563933
0.401000	1.562967
0.402000	1.573274
0.403000	1.589057
0.404000	1.606128
0.405000	1.607094
0.406000	1.585192
0.407000	1.582615
0.408000	1.581004
0.409000	1.585192
0.410000	1.587446
0.411000	1.583259
0.412000	1.569731
0.413000	1.550728
0.414000	1.543319
0.415000	1.548151
0.416000	1.552338
0.417000	1.554915
0.418000	1.551372
0.419000	1.551050
0.420000	1.558458
0.421000	1.574240
0.422000	1.584870
0.423000	1.581327
0.424000	1.583903
0.425000	1.591956
0.426000	1.595821
0.427000	1.593888
0.428000	1.573596
0.429000	1.547507
0.430000	1.532690
0.431000	1.544286
0.432000	1.544286
0.433000	1.542031
0.434000	1.548795
0.435000	1.551694
0.436000	1.556847
0.437000	1.557169
0.438000	1.558780
0.439000	1.562645
0.440000	1.564900
0.441000	1.568121
0.442000	1.572630
0.443000	1.567154
0.444000	1.563611
0.445000	1.562645
0.446000	1.546218
0.447000	1.546862
0.448000	1.539132
0.449000	1.541065
0.450000	1.543642
0.451000	1.549761
0.452000	1.567154
0.453000	1.591956
0.454000	1.624165
0.455000	1.640592
0.456000	1.606450
0.457000	1.571342
0.458000	1.539132
0.459000	1.520451
0.460000	1.525926
0.461000	1.542997
0.462000	1.549761
0.463000	1.549439
0.464000	1.542997
0.465000	1.542031
0.466000	1.540743
0.467000	1.562323
0.468000	1.577461
0.469000	1.586480
0.470000	1.574563
0.471000	1.577461
0.472000	1.594855
0.473000	1.574563
0.474000	1.557169
0.475000	1.564256
0.476000	1.568443
0.477000	1.575207
0.478000	1.568765
0.479000	1.555559
0.480000	1.546540
0.481000	1.546862
0.482000	1.552016
0.483000	1.555237
0.484000	1.555881
0.485000	1.566510
0.486000	1.570697
0.487000	1.578750
0.488000	1.590667
0.489000	1.607094
0.490000	1.572630
0.491000	1.580682
0.492000	1.598398
0.493000	1.592600
0.494000	1.568443
0.495000	1.542997
0.496000	1.530114
0.497000	1.517230
0.498000	1.514975
0.499000	1.531080
0.500000	1.546540
0.501000	1.561679
0.502000	1.598075
0.503000	1.618367
0.504000	1.612892
0.505000	1.609027
0.506000	1.575529
0.507000	1.538810
0.508000	1.516263
0.509000	1.513043
0.510000	1.512398
0.511000	1.519807
0.512000	1.529791
0.513000	1.530758
0.514000	1.536233
0.515000	1.543964
0.516000	1.547185
0.517000	1.545896
0.518000	1.551372
0.519000	1.558780
0.520000	1.568443
0.521000	1.589057
0.522000	1.607738
0.523000	1.630607
0.524000	1.602907
0.525000	1.580682
0.526000	1.571986
0.527000	1.565866
0.528000	1.574240
0.529000	1.573274
0.530000	1.565222
0.531000	1.567154
0.532000	1.562323
0.533000	1.570375
0.534000	1.585192
0.535000	1.600652
0.536000	1.624487
0.537000	1.622555
0.538000	1.595499
0.539000	1.574563
0.540000	1.558780
0.541000	1.528503
0.542000	1.527215
0.543000	1.548795
0.544000	1.570697
0.545000	1.576817
0.546000	1.569087
0.547000	1.559424
0.548000	1.539454
0.549000	1.534945
0.550000	1.533334
0.551000	1.543319
0.552000	1.545252
0.553000	1.560390
0.554000	1.542997
0.555000	1.544608
0.556000	1.556525
0.557000	1.556847
0.558000	1.553626
0.559000	1.577139
0.560000	1.588413
0.561000	1.604839
0.562000	1.610315
0.563000	1.605806
0.564000	1.595177
0.565000	1.587124
0.566000	1.560390
0.567000	1.561357
0.568000	1.565544
0.569000	1.562323
0.570000	1.563933
0.571000	1.578428
0.572000	1.594532
0.573000	1.601941
0.574000	1.610315
0.575000	1.623199
0.576000	1.549761
0.577000	1.524638
0.578000	1.529791
0.579000	1.539454
0.580000	1.543642
0.581000	1.544930
0.582000	1.547185
0.583000	1.548473
0.584000	1.550406
0.585000	1.553949
0.586000	1.557814
0.587000	1.557169
0.588000	1.563611
0.589000	1.566832
0.590000	1.558136
0.591000	1.567154
0.592000	1.576817
0.593000	1.584225
0.594000	1.569409
0.595000	1.562001
0.596000	1.552982
0.597000	1.552982
0.598000	1.549761
0.599000	1.560390
0.600000	1.559424
0.601000	1.546540
0.602000	1.545252
0.603000	1.570375
0.604000	1.603229
0.605000	1.622233
0.606000	1.601296
0.607000	1.589701
0.608000	1.581327
0.609000	1.581971
0.610000	1.601296
0.611000	1.570053
0.612000	1.541709
0.613000	1.535589
0.614000	1.532368
0.615000	1.529147
0.616000	1.525604
0.617000	1.527537
0.618000	1.539776
0.619000	1.547829
0.620000	1.557492
0.621000	1.560713
0.622000	1.578750
0.623000	1.586158
0.624000	1.559746
0.625000	1.557492
0.626000	1.567154
0.627000	1.583581
0.628000	1.589701
0.629000	1.582293
0.630000	1.590989
0.631000	1.625454
0.632000	1.648322
0.633000	1.604195
0.634000	1.544608
0.635000	1.534623
0.636000	1.553626
0.637000	1.570375
0.638000	1.570053
0.639000	1.558136
0.640000	1.557492
0.641000	1.559424
0.642000	1.561035
0.643000	1.558458
0.644000	1.552016
0.645000	1.550728
0.646000	1.549117
0.647000	1.555559
0.648000	1.564900
0.649000	1.569409
0.650000	1.582937
0.651000	1.589701
0.652000	1.599042
0.653000	1.602907
0.654000	1.594210
0.655000	1.586480
0.656000	1.578750
0.657000	1.560390
0.658000	1.558136
0.659000	1.541387
0.660000	1.537844
0.661000	1.564900
0.662000	1.565866
0.663000	1.554915
0.664000	1.538810
0.665000	1.540743
0.666000	1.538166
0.667000	1.538810
0.668000	1.540743
0.669000	1.550083
0.670000	1.563289
0.671000	1.573918
0.672000	1.583581
0.673000	1.579394
0.674000	1.574885
0.675000	1.569731
0.676000	1.563289
0.677000	1.554271
0.678000	1.554271
0.679000	1.559746
0.680000	1.538488
0.681000	1.531402
0.682000	1.554271
0.683000	1.563933
0.684000	1.576173
0.685000	1.592278
0.686000	1.583581
0.687000	1.558458
0.688000	1.551372
0.689000	1.558136
0.690000	1.573918
0.691000	1.567477
0.692000	1.562323
0.693000	1.549117
0.694000	1.543319
0.695000	1.554915
0.696000	1.567154
0.697000	1.577461
0.698000	1.575529
0.699000	1.577784
0.700000	1.593566
0.701000	1.585192
0.702000	1.597753
0.703000	1.612248
0.704000	1.643491
0.705000	1.656053
0.706000	1.651543
0.707000	1.622555
0.708000	1.568443
0.709000	1.521417
0.710000	1.516263
0.711000	1.513365
0.712000	1.508855
0.713000	1.517874
0.714000	1.533979
0.715000	1.545896
0.716000	1.551050
0.717000	1.548151
0.718000	1.565544
0.719000	1.568443
0.720000	1.566510
0.721000	1.581649
0.722000	1.589379
0.723000	1.573918
0.724000	1.562001
0.725000	1.551694
0.726000	1.548473
0.727000	1.546862
0.728000	1.542675
0.729000	1.536555
0.730000	1.529147
0.731000	1.525604
0.732000	1.524638
0.733000	1.526248
0.734000	1.542675
0.735000	1.553949
0.736000	1.568443
0.737000	1.574240
0.738000	1.607094
0.739000	1.616757
0.740000	1.586802
0.741000	1.563933
0.742000	1.571020
0.743000	1.580682
0.744000	1.581327
0.745000	1.589057
0.746000	1.570053
0.747000	1.552338
0.748000	1.553304
0.749000	1.548795
0.750000	1.549117
0.751000	1.556847
0.752000	1.563611
0.753000	1.569731
0.754000	1.566832
0.755000	1.568121
0.756000	1.562323
0.757000	1.552338
0.758000	1.556847
0.759000	1.547507
0.760000	1.547829
0.761000	1.541709
0.762000	1.560390
0.763000	1.579394
0.764000	1.588735
0.765000	1.597109
0.766000	1.625131
0.767000	1.627386
0.768000	1.644457
0.769000	1.625776
0.770000	1.562001
0.771000	1.499515
0.772000	1.496616
0.773000	1.512720
0.774000	1.538488
0.775000	1.555237
0.776000	1.570053
0.777000	1.567477
0.778000	1.556203
0.779000	1.550083
0.780000	1.545574
0.781000	1.527215
0.782000	1.507245
0.783000	1.504024
0.784000	1.529147
0.785000	1.546218
0.786000	1.567154
0.787000	1.603873
0.788000	1.629319
0.789000	1.636405
0.790000	1.626420
0.791000	1.612248
0.792000	1.602907
0.793000	1.589701
0.794000	1.584548
0.795000	1.569731
0.796000	1.546540
0.797000	1.553304
0.798000	1.571342
0.799000	1.578106
0.800000	1.563933
0.801000	1.529791
0.802000	1.519807
0.803000	1.514009
0.804000	1.518196
0.805000	1.542353
0.806000	1.559102
0.807000	1.572308
0.808000	1.566188
0.809000	1.562323
0.810000	1.552982
0.811000	1.557814
0.812000	1.552660
0.813000	1.543964
0.814000	1.523672
0.815000	1.520129
0.816000	1.523994
0.817000	1.545252
0.818000	1.546862
0.819000	1.559424
0.820000	1.548151
0.821000	1.545574
0.822000	1.547829
0.823000	1.551372
0.824000	1.562645
0.825000	1.569731
0.826000	1.574563
0.827000	1.568765
0.828000	1.555237
0.829000	1.543319
0.830000	1.535911
0.831000	1.541709
0.832000	1.554271
0.833000	1.557169
0.834000	1.562645
0.835000	1.565222
0.836000	1.558458
0.837000	1.547185
0.838000	1.562967
0.839000	1.596143
0.840000	1.647356
0.841000	1.686974
0.842000	1.681498
0.843000	1.650899
0.844000	1.587124
0.845000	1.534623
0.846000	1.492751
0.847000	1.486631
0.848000	1.519484
0.849000	1.539776
0.850000	1.544930
0.851000	1.550083
0.852000	1.567477
0.853000	1.578106
0.854000	1.589057
0.855000	1.595177
0.856000	1.589057
0.857000	1.581649
0.858000	1.581649
0.859000	1.585836
0.860000	1.589057
0.861000	1.597431
0.862000	1.604839
0.863000	1.614502
0.864000	1.598075
0.865000	1.559424
0.866000	1.523027
0.867000	1.510788
0.868000	1.536878
0.869000	1.557169
0.870000	1.576817
0.871000	1.573596
0.872000	1.572952
0.873000	1.586158
0.874000	1.592278
0.875000	1.599364
0.876000	1.601296
0.877000	1.598075
0.878000	1.581649
0.879000	1.568765
0.880000	1.562323
0.881000	1.556847
0.882000	1.554593
0.883000	1.552016
0.884000	1.555881
0.885000	1.565222
0.886000	1.583581
0.887000	1.600330
0.888000	1.641880
0.889000	1.643813
0.890000	1.609993
0.891000	1.579716
0.892000	1.559746
0.893000	1.541709
0.894000	1.532690
0.895000	1.541065
0.896000	1.552982
0.897000	1.559424
0.898000	1.558458
0.899000	1.565222
0.900000	1.546862
0.901000	1.528181
0.902000	1.519484
0.903000	1.524316
0.904000	1.536555
0.905000	1.564900
0.906000	1.587446
0.907000	1.592600
0.908000	1.588413
0.909000	1.576495
0.910000	1.563289
0.911000	1.555237
0.912000	1.547185
0.913000	1.544608
0.914000	1.541065
0.915000	1.564578
0.916000	1.583903
0.917000	1.589057
0.918000	1.599042
0.919000	1.603551
0.920000	1.592922
0.921000	1.583581
0.922000	1.585514
0.923000	1.593244
0.924000	1.612248
0.925000	1.595499
0.926000	1.602263
0.927000	1.600008
0.928000	1.604517
0.929000	1.608383
0.930000	1.594855
0.931000	1.567799
0.932000	1.536878
0.933000	1.539454
0.934000	1.555881
0.935000	1.568765
0.936000	1.589057
0.937000	1.591312
0.938000	1.588091
0.939000	1.576817
0.940000	1.533979
0.941000	1.529791
0.942000	1.531402
0.943000	1.532368
0.944000	1.545896
0.945000	1.539454
0.946000	1.535589
0.947000	1.558136
0.948000	1.584548
0.949000	1.608383
0.950000	1.635116
0.951000	1.654764
0.952000	1.631251
0.953000	1.595821
0.954000	1.539454
0.955000	1.533657
0.956000	1.541387
0.957000	1.530758
0.958000	1.524960
0.959000	1.517230
0.960000	1.520773
0.961000	1.532690
0.962000	1.545574
0.963000	1.554915
0.964000	1.554271
0.965000	1.544286
0.966000	1.550406
0.967000	1.555559
0.968000	1.564900
0.969000	1.562967
0.970000	1.581649
0.971000	1.601296
0.972000	1.594532
0.973000	1.579394
0.974000	1.598720
0.975000	1.623199
0.976000	1.616757
0.977000	1.627386
0.978000	1.618690
0.979000	1.584870
0.980000	1.553949
0.981000	1.549761
0.982000	1.550083
0.983000	1.554915
0.984000	1.568121
0.985000	1.578750
0.986000	1.587446
0.987000	1.588413
0.988000	1.577784
0.989000	1.576817
0.990000	1.563289
0.991000	1.571664
0.992000	1.573918
0.993000	1.569087
0.994000	1.549761
0.995000	1.539454
0.996000	1.546218
0.997000	1.549439
0.998000	1.559102
0.999000	1.566188
1.000000	1.565866
1.001000	1.563933
1.002000	1.581004
1.003000	1.607416
1.004000	1.609027
1.005000	1.605162
1.006000	1.607416
1.007000	1.610959
1.008000	1.591634
1.009000	1.552338
1.010000	1.538166
1.011000	1.546218
1.012000	1.527859
1.013000	1.521417
1.014000	1.526893
1.015000	1.526893
1.016000	1.536555
1.017000	1.542353
1.018000	1.551694
1.019000	1.559424
1.020000	1.568121
1.021000	1.575851
1.022000	1.581971
1.023000	1.592278
1.024000	1.590989
1.025000	1.582293
1.026000	1.623199
