LabVIEW Measurement	
Writer_Version	2
Reader_Version	2
Separator	Tab
Decimal_Separator	.
Multi_Headings	Yes
X_Columns	One
Time_Pref	Relative
Operator	bjl40
Description	Time Domain Data
Date	2024/02/29
Time	12:00:57.6421046257019042969
***End_of_Header***	
	
Channels	1	
Samples	10000	
Date	2024/02/29	
Time	12:00:57.6421046257019042969	
X_Dimension	Time	
X0	0.0000000000000000E+0	
Delta_X	0.001000	
***End_of_Header***		
X_Value	Untitled	Comment
0.000000	1.535911	Tare Values:0.000000, 0.000000, 0.000000, 0.000000\0D\0A
0.001000	1.533657
0.002000	1.538488
0.003000	1.537522
0.004000	1.542675
0.005000	1.550406
0.006000	1.550406
0.007000	1.557492
0.008000	1.567477
0.009000	1.577461
0.010000	1.584225
0.011000	1.584870
0.012000	1.579394
0.013000	1.576817
0.014000	1.569087
0.015000	1.558458
0.016000	1.550083
0.017000	1.540421
0.018000	1.529791
0.019000	1.526248
0.020000	1.530114
0.021000	1.540098
0.022000	1.542997
0.023000	1.552016
0.024000	1.562323
0.025000	1.571342
0.026000	1.584225
0.027000	1.583903
0.028000	1.587124
0.029000	1.578428
0.030000	1.565222
0.031000	1.551050
0.032000	1.551372
0.033000	1.545252
0.034000	1.541709
0.035000	1.534945
0.036000	1.536233
0.037000	1.538488
0.038000	1.545896
0.039000	1.549761
0.040000	1.558458
0.041000	1.569409
0.042000	1.582937
0.043000	1.586158
0.044000	1.589701
0.045000	1.590345
0.046000	1.585836
0.047000	1.578750
0.048000	1.569087
0.049000	1.563933
0.050000	1.555559
0.051000	1.554271
0.052000	1.548151
0.053000	1.545252
0.054000	1.546540
0.055000	1.551050
0.056000	1.560068
0.057000	1.564900
0.058000	1.572952
0.059000	1.581327
0.060000	1.593888
0.061000	1.594855
0.062000	1.593566
0.063000	1.588413
0.064000	1.572952
0.065000	1.562645
0.066000	1.552338
0.067000	1.552338
0.068000	1.547185
0.069000	1.546540
0.070000	1.547185
0.071000	1.554593
0.072000	1.560390
0.073000	1.561035
0.074000	1.574563
0.075000	1.583259
0.076000	1.590023
0.077000	1.595821
0.078000	1.599042
0.079000	1.593244
0.080000	1.586802
0.081000	1.576817
0.082000	1.571986
0.083000	1.562967
0.084000	1.556525
0.085000	1.557492
0.086000	1.555559
0.087000	1.557169
0.088000	1.557492
0.089000	1.561679
0.090000	1.569087
0.091000	1.576495
0.092000	1.584548
0.093000	1.591312
0.094000	1.590667
0.095000	1.588413
0.096000	1.586158
0.097000	1.582937
0.098000	1.574240
0.099000	1.565544
0.100000	1.562323
0.101000	1.558136
0.102000	1.558136
0.103000	1.546862
0.104000	1.547185
0.105000	1.551694
0.106000	1.557814
0.107000	1.571020
0.108000	1.575529
0.109000	1.585514
0.110000	1.586480
0.111000	1.591956
0.112000	1.589057
0.113000	1.584870
0.114000	1.577139
0.115000	1.571020
0.116000	1.564578
0.117000	1.555237
0.118000	1.549761
0.119000	1.546862
0.120000	1.544608
0.121000	1.547507
0.122000	1.554271
0.123000	1.567154
0.124000	1.573274
0.125000	1.583903
0.126000	1.591312
0.127000	1.596143
0.128000	1.596465
0.129000	1.591634
0.130000	1.580682
0.131000	1.578750
0.132000	1.568121
0.133000	1.560068
0.134000	1.553304
0.135000	1.555237
0.136000	1.551372
0.137000	1.554593
0.138000	1.557814
0.139000	1.564578
0.140000	1.569409
0.141000	1.575851
0.142000	1.587124
0.143000	1.594210
0.144000	1.592922
0.145000	1.594210
0.146000	1.588413
0.147000	1.580682
0.148000	1.574885
0.149000	1.564256
0.150000	1.560390
0.151000	1.557492
0.152000	1.556525
0.153000	1.555237
0.154000	1.555237
0.155000	1.559102
0.156000	1.563289
0.157000	1.564900
0.158000	1.574240
0.159000	1.584225
0.160000	1.598075
0.161000	1.595499
0.162000	1.595499
0.163000	1.585514
0.164000	1.573274
0.165000	1.570053
0.166000	1.555237
0.167000	1.545574
0.168000	1.545896
0.169000	1.547185
0.170000	1.551050
0.171000	1.551050
0.172000	1.559424
0.173000	1.559102
0.174000	1.570375
0.175000	1.580038
0.176000	1.590023
0.177000	1.597753
0.178000	1.596787
0.179000	1.591312
0.180000	1.585192
0.181000	1.573596
0.182000	1.559424
0.183000	1.549439
0.184000	1.542997
0.185000	1.544608
0.186000	1.552016
0.187000	1.550083
0.188000	1.556525
0.189000	1.561035
0.190000	1.571020
0.191000	1.576817
0.192000	1.587446
0.193000	1.586802
0.194000	1.587768
0.195000	1.586158
0.196000	1.582937
0.197000	1.577461
0.198000	1.566510
0.199000	1.559746
0.200000	1.551694
0.201000	1.550728
0.202000	1.547829
0.203000	1.546540
0.204000	1.551694
0.205000	1.556203
0.206000	1.565544
0.207000	1.571664
0.208000	1.579394
0.209000	1.584225
0.210000	1.592922
0.211000	1.595499
0.212000	1.590667
0.213000	1.586802
0.214000	1.574885
0.215000	1.571020
0.216000	1.565866
0.217000	1.560068
0.218000	1.554271
0.219000	1.551050
0.220000	1.543319
0.221000	1.553626
0.222000	1.549761
0.223000	1.563933
0.224000	1.570375
0.225000	1.579394
0.226000	1.586480
0.227000	1.591956
0.228000	1.590023
0.229000	1.584870
0.230000	1.578428
0.231000	1.569087
0.232000	1.564900
0.233000	1.558136
0.234000	1.545252
0.235000	1.548473
0.236000	1.552982
0.237000	1.557492
0.238000	1.561679
0.239000	1.571020
0.240000	1.581327
0.241000	1.584225
0.242000	1.592278
0.243000	1.596143
0.244000	1.597753
0.245000	1.592278
0.246000	1.585192
0.247000	1.580682
0.248000	1.570375
0.249000	1.560713
0.250000	1.557169
0.251000	1.547507
0.252000	1.546862
0.253000	1.548151
0.254000	1.552016
0.255000	1.555881
0.256000	1.565222
0.257000	1.573596
0.258000	1.579072
0.259000	1.591634
0.260000	1.590989
0.261000	1.595499
0.262000	1.590345
0.263000	1.579072
0.264000	1.575207
0.265000	1.571664
0.266000	1.562001
0.267000	1.557814
0.268000	1.549761
0.269000	1.549761
0.270000	1.546218
0.271000	1.556847
0.272000	1.566510
0.273000	1.575529
0.274000	1.582615
0.275000	1.585514
0.276000	1.586802
0.277000	1.582615
0.278000	1.588091
0.279000	1.582293
0.280000	1.580682
0.281000	1.568443
0.282000	1.558458
0.283000	1.559424
0.284000	1.546218
0.285000	1.543964
0.286000	1.546218
0.287000	1.546540
0.288000	1.547507
0.289000	1.552016
0.290000	1.559746
0.291000	1.571986
0.292000	1.582937
0.293000	1.586158
0.294000	1.589701
0.295000	1.586802
0.296000	1.585192
0.297000	1.574885
0.298000	1.562645
0.299000	1.557492
0.300000	1.549117
0.301000	1.543964
0.302000	1.545252
0.303000	1.546862
0.304000	1.550728
0.305000	1.560068
0.306000	1.561679
0.307000	1.573918
0.308000	1.582615
0.309000	1.583581
0.310000	1.589057
0.311000	1.590989
0.312000	1.589057
0.313000	1.579716
0.314000	1.575529
0.315000	1.566510
0.316000	1.555559
0.317000	1.551050
0.318000	1.545574
0.319000	1.551050
0.320000	1.547185
0.321000	1.552016
0.322000	1.557814
0.323000	1.569087
0.324000	1.571664
0.325000	1.576817
0.326000	1.589379
0.327000	1.590989
0.328000	1.591312
0.329000	1.587768
0.330000	1.578750
0.331000	1.570697
0.332000	1.564578
0.333000	1.555881
0.334000	1.552982
0.335000	1.553949
0.336000	1.551050
0.337000	1.553304
0.338000	1.558136
0.339000	1.561679
0.340000	1.573274
0.341000	1.584870
0.342000	1.591634
0.343000	1.596465
0.344000	1.593888
0.345000	1.589057
0.346000	1.581004
0.347000	1.576817
0.348000	1.569087
0.349000	1.559424
0.350000	1.554271
0.351000	1.551694
0.352000	1.547829
0.353000	1.556847
0.354000	1.558458
0.355000	1.557169
0.356000	1.559746
0.357000	1.569731
0.358000	1.579716
0.359000	1.587446
0.360000	1.592600
0.361000	1.597753
0.362000	1.591634
0.363000	1.586480
0.364000	1.575207
0.365000	1.569731
0.366000	1.561679
0.367000	1.553626
0.368000	1.544930
0.369000	1.544930
0.370000	1.550083
0.371000	1.555881
0.372000	1.562323
0.373000	1.572952
0.374000	1.575529
0.375000	1.585514
0.376000	1.586480
0.377000	1.587768
0.378000	1.589701
0.379000	1.584225
0.380000	1.580360
0.381000	1.571020
0.382000	1.562967
0.383000	1.559102
0.384000	1.546218
0.385000	1.547507
0.386000	1.548473
0.387000	1.552016
0.388000	1.554915
0.389000	1.560713
0.390000	1.566832
0.391000	1.574240
0.392000	1.584225
0.393000	1.587446
0.394000	1.590023
0.395000	1.590023
0.396000	1.584548
0.397000	1.573918
0.398000	1.567477
0.399000	1.564578
0.400000	1.558458
0.401000	1.546218
0.402000	1.545252
0.403000	1.547185
0.404000	1.552660
0.405000	1.557492
0.406000	1.568121
0.407000	1.573918
0.408000	1.579716
0.409000	1.585514
0.410000	1.591312
0.411000	1.595177
0.412000	1.581004
0.413000	1.578428
0.414000	1.571664
0.415000	1.562645
0.416000	1.554593
0.417000	1.550728
0.418000	1.548473
0.419000	1.547507
0.420000	1.551694
0.421000	1.547507
0.422000	1.556847
0.423000	1.568121
0.424000	1.572308
0.425000	1.584225
0.426000	1.588091
0.427000	1.595177
0.428000	1.594532
0.429000	1.586158
0.430000	1.576495
0.431000	1.571664
0.432000	1.564900
0.433000	1.553626
0.434000	1.547829
0.435000	1.546862
0.436000	1.541065
0.437000	1.554915
0.438000	1.546862
0.439000	1.559102
0.440000	1.568443
0.441000	1.578750
0.442000	1.592278
0.443000	1.595177
0.444000	1.602907
0.445000	1.595177
0.446000	1.588091
0.447000	1.583259
0.448000	1.571342
0.449000	1.567799
0.450000	1.558780
0.451000	1.554593
0.452000	1.560068
0.453000	1.552016
0.454000	1.551372
0.455000	1.554593
0.456000	1.562001
0.457000	1.572952
0.458000	1.578106
0.459000	1.587768
0.460000	1.580682
0.461000	1.589701
0.462000	1.584225
0.463000	1.579716
0.464000	1.571020
0.465000	1.564900
0.466000	1.556203
0.467000	1.551050
0.468000	1.545896
0.469000	1.543642
0.470000	1.548795
0.471000	1.553949
0.472000	1.556203
0.473000	1.562645
0.474000	1.574240
0.475000	1.584548
0.476000	1.590023
0.477000	1.595499
0.478000	1.589701
0.479000	1.590989
0.480000	1.586480
0.481000	1.569409
0.482000	1.563289
0.483000	1.557814
0.484000	1.552660
0.485000	1.546540
0.486000	1.543642
0.487000	1.545896
0.488000	1.552016
0.489000	1.558136
0.490000	1.568121
0.491000	1.572630
0.492000	1.582937
0.493000	1.587124
0.494000	1.590989
0.495000	1.587768
0.496000	1.576817
0.497000	1.576173
0.498000	1.565544
0.499000	1.561679
0.500000	1.554915
0.501000	1.552660
0.502000	1.543964
0.503000	1.543319
0.504000	1.545252
0.505000	1.555559
0.506000	1.562967
0.507000	1.565866
0.508000	1.576495
0.509000	1.587124
0.510000	1.592278
0.511000	1.598075
0.512000	1.593244
0.513000	1.588413
0.514000	1.577784
0.515000	1.569731
0.516000	1.556847
0.517000	1.546862
0.518000	1.544608
0.519000	1.545574
0.520000	1.543319
0.521000	1.546218
0.522000	1.549439
0.523000	1.555559
0.524000	1.567477
0.525000	1.574885
0.526000	1.588735
0.527000	1.585192
0.528000	1.581004
0.529000	1.584225
0.530000	1.575529
0.531000	1.559746
0.532000	1.556525
0.533000	1.544930
0.534000	1.541387
0.535000	1.536878
0.536000	1.536233
0.537000	1.545574
0.538000	1.543319
0.539000	1.553626
0.540000	1.558136
0.541000	1.578750
0.542000	1.593566
0.543000	1.593888
0.544000	1.591312
0.545000	1.592278
0.546000	1.585514
0.547000	1.576817
0.548000	1.568121
0.549000	1.563289
0.550000	1.551694
0.551000	1.549439
0.552000	1.547185
0.553000	1.548151
0.554000	1.552982
0.555000	1.557169
0.556000	1.566188
0.557000	1.571020
0.558000	1.581004
0.559000	1.585192
0.560000	1.588091
0.561000	1.596143
0.562000	1.591956
0.563000	1.579394
0.564000	1.572308
0.565000	1.561679
0.566000	1.555237
0.567000	1.547185
0.568000	1.545574
0.569000	1.544930
0.570000	1.548473
0.571000	1.546862
0.572000	1.556847
0.573000	1.561679
0.574000	1.571664
0.575000	1.579716
0.576000	1.594855
0.577000	1.587446
0.578000	1.589057
0.579000	1.582293
0.580000	1.579072
0.581000	1.565544
0.582000	1.561679
0.583000	1.553304
0.584000	1.547185
0.585000	1.543964
0.586000	1.541709
0.587000	1.546218
0.588000	1.551372
0.589000	1.557169
0.590000	1.567477
0.591000	1.591312
0.592000	1.599364
0.593000	1.600008
0.594000	1.600330
0.595000	1.591634
0.596000	1.588735
0.597000	1.581649
0.598000	1.569409
0.599000	1.567477
0.600000	1.556847
0.601000	1.548795
0.602000	1.542675
0.603000	1.549439
0.604000	1.555237
0.605000	1.562001
0.606000	1.567799
0.607000	1.568765
0.608000	1.575529
0.609000	1.589701
0.610000	1.598075
0.611000	1.612248
0.612000	1.610959
0.613000	1.595177
0.614000	1.572630
0.615000	1.559102
0.616000	1.551694
0.617000	1.547829
0.618000	1.543642
0.619000	1.544930
0.620000	1.547507
0.621000	1.552016
0.622000	1.558458
0.623000	1.567154
0.624000	1.571986
0.625000	1.579716
0.626000	1.594210
0.627000	1.595821
0.628000	1.591956
0.629000	1.585192
0.630000	1.575529
0.631000	1.568443
0.632000	1.562001
0.633000	1.553304
0.634000	1.550406
0.635000	1.546218
0.636000	1.561035
0.637000	1.550728
0.638000	1.553626
0.639000	1.559746
0.640000	1.568765
0.641000	1.569409
0.642000	1.580682
0.643000	1.594210
0.644000	1.612892
0.645000	1.598720
0.646000	1.587446
0.647000	1.576495
0.648000	1.566188
0.649000	1.559746
0.650000	1.552660
0.651000	1.547507
0.652000	1.549761
0.653000	1.555237
0.654000	1.554271
0.655000	1.563611
0.656000	1.564578
0.657000	1.570697
0.658000	1.578428
0.659000	1.588413
0.660000	1.592922
0.661000	1.591956
0.662000	1.587446
0.663000	1.582615
0.664000	1.587124
0.665000	1.574885
0.666000	1.563611
0.667000	1.554271
0.668000	1.550728
0.669000	1.546862
0.670000	1.547829
0.671000	1.548795
0.672000	1.557492
0.673000	1.562967
0.674000	1.575207
0.675000	1.584870
0.676000	1.591634
0.677000	1.593244
0.678000	1.594855
0.679000	1.586802
0.680000	1.579716
0.681000	1.571020
0.682000	1.565544
0.683000	1.557169
0.684000	1.555237
0.685000	1.542031
0.686000	1.551372
0.687000	1.548795
0.688000	1.557492
0.689000	1.563933
0.690000	1.570053
0.691000	1.573274
0.692000	1.585192
0.693000	1.594210
0.694000	1.587768
0.695000	1.588091
0.696000	1.583581
0.697000	1.585192
0.698000	1.580682
0.699000	1.567154
0.700000	1.555237
0.701000	1.549439
0.702000	1.544608
0.703000	1.548473
0.704000	1.553626
0.705000	1.557814
0.706000	1.559102
0.707000	1.571342
0.708000	1.579072
0.709000	1.588735
0.710000	1.591634
0.711000	1.592922
0.712000	1.589057
0.713000	1.582615
0.714000	1.572308
0.715000	1.564900
0.716000	1.558136
0.717000	1.555881
0.718000	1.560713
0.719000	1.555559
0.720000	1.550406
0.721000	1.551050
0.722000	1.557814
0.723000	1.565222
0.724000	1.572308
0.725000	1.579716
0.726000	1.586802
0.727000	1.585514
0.728000	1.582937
0.729000	1.576817
0.730000	1.574240
0.731000	1.565222
0.732000	1.561357
0.733000	1.552016
0.734000	1.548795
0.735000	1.541387
0.736000	1.543964
0.737000	1.551372
0.738000	1.564900
0.739000	1.561035
0.740000	1.570053
0.741000	1.578750
0.742000	1.583903
0.743000	1.591956
0.744000	1.600974
0.745000	1.595499
0.746000	1.587446
0.747000	1.577461
0.748000	1.569409
0.749000	1.563611
0.750000	1.556203
0.751000	1.545574
0.752000	1.540098
0.753000	1.542997
0.754000	1.550083
0.755000	1.559102
0.756000	1.562323
0.757000	1.573274
0.758000	1.584548
0.759000	1.594532
0.760000	1.596465
0.761000	1.596465
0.762000	1.598720
0.763000	1.583259
0.764000	1.608705
0.765000	1.611603
0.766000	1.580360
0.767000	1.565866
0.768000	1.555237
0.769000	1.547829
0.770000	1.550406
0.771000	1.551050
0.772000	1.555559
0.773000	1.559746
0.774000	1.563289
0.775000	1.574240
0.776000	1.579394
0.777000	1.583903
0.778000	1.585514
0.779000	1.577784
0.780000	1.567154
0.781000	1.562645
0.782000	1.555237
0.783000	1.548795
0.784000	1.546862
0.785000	1.544930
0.786000	1.542675
0.787000	1.546540
0.788000	1.553949
0.789000	1.562001
0.790000	1.581004
0.791000	1.622555
0.792000	1.610959
0.793000	1.598075
0.794000	1.594855
0.795000	1.587124
0.796000	1.583581
0.797000	1.570375
0.798000	1.561679
0.799000	1.549117
0.800000	1.545574
0.801000	1.546540
0.802000	1.542675
0.803000	1.544930
0.804000	1.549117
0.805000	1.557169
0.806000	1.560713
0.807000	1.572630
0.808000	1.577139
0.809000	1.586802
0.810000	1.589057
0.811000	1.590023
0.812000	1.580360
0.813000	1.573274
0.814000	1.581971
0.815000	1.604517
0.816000	1.579716
0.817000	1.559746
0.818000	1.545252
0.819000	1.539776
0.820000	1.547829
0.821000	1.547829
0.822000	1.556203
0.823000	1.564256
0.824000	1.570375
0.825000	1.577461
0.826000	1.592600
0.827000	1.589701
0.828000	1.589057
0.829000	1.581004
0.830000	1.577461
0.831000	1.568765
0.832000	1.558780
0.833000	1.553304
0.834000	1.546862
0.835000	1.545574
0.836000	1.549117
0.837000	1.559102
0.838000	1.565222
0.839000	1.564900
0.840000	1.568765
0.841000	1.581327
0.842000	1.588091
0.843000	1.592600
0.844000	1.594855
0.845000	1.590023
0.846000	1.587124
0.847000	1.573274
0.848000	1.560713
0.849000	1.558136
0.850000	1.549439
0.851000	1.549117
0.852000	1.544930
0.853000	1.547829
0.854000	1.550406
0.855000	1.558136
0.856000	1.565222
0.857000	1.577784
0.858000	1.584870
0.859000	1.591312
0.860000	1.598075
0.861000	1.593244
0.862000	1.590989
0.863000	1.581004
0.864000	1.571342
0.865000	1.564256
0.866000	1.561035
0.867000	1.547829
0.868000	1.547507
0.869000	1.544930
0.870000	1.546862
0.871000	1.553626
0.872000	1.560068
0.873000	1.567477
0.874000	1.575851
0.875000	1.589057
0.876000	1.593566
0.877000	1.591956
0.878000	1.590989
0.879000	1.584225
0.880000	1.575207
0.881000	1.569087
0.882000	1.562323
0.883000	1.554271
0.884000	1.561035
0.885000	1.562001
0.886000	1.554271
0.887000	1.552338
0.888000	1.550728
0.889000	1.557169
0.890000	1.570053
0.891000	1.576173
0.892000	1.585514
0.893000	1.590023
0.894000	1.591634
0.895000	1.587768
0.896000	1.577461
0.897000	1.571664
0.898000	1.562001
0.899000	1.557492
0.900000	1.550406
0.901000	1.548473
0.902000	1.548473
0.903000	1.548151
0.904000	1.573274
0.905000	1.579716
0.906000	1.575851
0.907000	1.573596
0.908000	1.579716
0.909000	1.587768
0.910000	1.592278
0.911000	1.588735
0.912000	1.581971
0.913000	1.576495
0.914000	1.564256
0.915000	1.568121
0.916000	1.558136
0.917000	1.545574
0.918000	1.546862
0.919000	1.542353
0.920000	1.546218
0.921000	1.551372
0.922000	1.557814
0.923000	1.566832
0.924000	1.574563
0.925000	1.582615
0.926000	1.587768
0.927000	1.588413
0.928000	1.590667
0.929000	1.580682
0.930000	1.579394
0.931000	1.577139
0.932000	1.565222
0.933000	1.554915
0.934000	1.551050
0.935000	1.554915
0.936000	1.549761
0.937000	1.553304
0.938000	1.552982
0.939000	1.557492
0.940000	1.564900
0.941000	1.578750
0.942000	1.584548
0.943000	1.590989
0.944000	1.589379
0.945000	1.582293
0.946000	1.581327
0.947000	1.570375
0.948000	1.564256
0.949000	1.557492
0.950000	1.556525
0.951000	1.556847
0.952000	1.550406
0.953000	1.549761
0.954000	1.554593
0.955000	1.561357
0.956000	1.569731
0.957000	1.579394
0.958000	1.590667
0.959000	1.594532
0.960000	1.600008
0.961000	1.595177
0.962000	1.576495
0.963000	1.571020
0.964000	1.563933
0.965000	1.559746
0.966000	1.548795
0.967000	1.548795
0.968000	1.549117
0.969000	1.545574
0.970000	1.550083
0.971000	1.557814
0.972000	1.562001
0.973000	1.566188
0.974000	1.576495
0.975000	1.586802
0.976000	1.601619
0.977000	1.606450
0.978000	1.592600
0.979000	1.585192
0.980000	1.576495
0.981000	1.568443
0.982000	1.554915
0.983000	1.552982
0.984000	1.546540
0.985000	1.545252
0.986000	1.545896
0.987000	1.547829
0.988000	1.553304
0.989000	1.559746
0.990000	1.562645
0.991000	1.576173
0.992000	1.579072
0.993000	1.584225
0.994000	1.589057
0.995000	1.586480
0.996000	1.586480
0.997000	1.585192
0.998000	1.564900
0.999000	1.556203
1.000000	1.544608
1.001000	1.544608
1.002000	1.546218
1.003000	1.546540
1.004000	1.550406
1.005000	1.558136
1.006000	1.566510
1.007000	1.573918
1.008000	1.576817
1.009000	1.584548
1.010000	1.586802
1.011000	1.585836
1.012000	1.581971
1.013000	1.574240
1.014000	1.564256
1.015000	1.559102
1.016000	1.552660
1.017000	1.547829
1.018000	1.546218
1.019000	1.545252
1.020000	1.550406
1.021000	1.555237
1.022000	1.580682
1.023000	1.622877
