LabVIEW Measurement	
Writer_Version	2
Reader_Version	2
Separator	Tab
Decimal_Separator	.
Multi_Headings	Yes
X_Columns	One
Time_Pref	Relative
Operator	bjl40
Description	Time Domain Data
Date	1903/12/31
Time	19:00:00
***End_of_Header***	
	
Channels	1	
Samples	10000	
Date	1903/12/31	
Time	19:00:00	
X_Dimension	Time	
X0	0.0000000000000000E+0	
Delta_X	0.001000	
***End_of_Header***		
X_Value	Untitled	Comment
0.000000	1.551372	Tare Values:0.000000, 0.000000, 0.000000, 0.000000\0D\0A
0.001000	1.436062
0.002000	1.297561
0.003000	1.286288
0.004000	1.396444
0.005000	1.514331
0.006000	1.575529
0.007000	1.598075
0.008000	1.537844
0.009000	1.487597
0.010000	1.443792
0.011000	1.415126
0.012000	1.516908
0.013000	1.651865
0.014000	1.699535
0.015000	1.755580
0.016000	1.711775
0.017000	1.619656
0.018000	1.478578
0.019000	1.425755
0.020000	1.361336
0.021000	1.326872
0.022000	1.411261
0.023000	1.502736
0.024000	1.430264
0.025000	1.365845
0.026000	1.347808
0.027000	1.351351
0.028000	1.433807
0.029000	1.566832
0.030000	1.693738
0.031000	1.792943
0.032000	1.923391
0.033000	1.935309
0.034000	1.872822
0.035000	1.778126
0.036000	1.663783
0.037000	1.560713
0.038000	1.465695
0.039000	1.430586
0.040000	1.590989
0.041000	1.565544
0.042000	1.587768
0.043000	1.584225
0.044000	1.436062
0.045000	1.344587
0.046000	1.492428
0.047000	1.773939
0.048000	2.066401
0.049000	2.270931
0.050000	2.271254
0.051000	2.139195
0.052000	1.918882
0.053000	1.666360
0.054000	1.412871
0.055000	1.210274
0.056000	1.042141
0.057000	1.024103
0.058000	1.088200
0.059000	1.132327
0.060000	1.278236
0.061000	1.409328
0.062000	1.538166
0.063000	1.560068
0.064000	1.554271
0.065000	1.636405
0.066000	1.682464
0.067000	1.696636
0.068000	1.635438
0.069000	1.506923
0.070000	1.443470
0.071000	1.425111
0.072000	1.524316
0.073000	1.687296
0.074000	1.715640
0.075000	1.730778
0.076000	1.690517
0.077000	1.563289
0.078000	1.411583
0.079000	1.343621
0.080000	1.311411
0.081000	1.275659
0.082000	1.188049
0.083000	1.169368
0.084000	1.172589
0.085000	1.267284
0.086000	1.420279
0.087000	1.548473
0.088000	1.547507
0.089000	1.539776
0.090000	1.577139
0.091000	1.530114
0.092000	1.514331
0.093000	1.554271
0.094000	1.584870
0.095000	1.651221
0.096000	1.586802
0.097000	1.482444
0.098000	1.368100
0.099000	1.384849
0.100000	1.471492
0.101000	1.592922
0.102000	1.677955
0.103000	1.730778
0.104000	1.747849
0.105000	1.782314
0.106000	1.814523
0.107000	1.878942
0.108000	1.918238
0.109000	1.921459
0.110000	1.840935
0.111000	1.719827
0.112000	1.634472
0.113000	1.582293
0.114000	1.522705
0.115000	1.447013
0.116000	1.409650
0.117000	1.411261
0.118000	1.495005
0.119000	1.605162
0.120000	1.694382
0.121000	1.678921
0.122000	1.632218
0.123000	1.539132
0.124000	1.412871
0.125000	1.343943
0.126000	1.282423
0.127000	1.291764
0.128000	1.314954
0.129000	1.363591
0.130000	1.434451
0.131000	1.493073
0.132000	1.499837
0.133000	1.557492
0.134000	1.558136
0.135000	1.503702
0.136000	1.504346
0.137000	1.698569
0.138000	2.006169
0.139000	2.130176
0.140000	2.000372
0.141000	1.790366
0.142000	1.641558
0.143000	1.562645
0.144000	1.435096
0.145000	1.366812
0.146000	1.362302
0.147000	1.388714
0.148000	1.511110
0.149000	1.584548
0.150000	1.594210
0.151000	1.575207
0.152000	1.424789
0.153000	1.322363
0.154000	1.426721
0.155000	1.574240
0.156000	1.769430
0.157000	1.922747
0.158000	1.997151
0.159000	1.929189
0.160000	1.675056
0.161000	1.394834
0.162000	1.291442
0.163000	1.381950
0.164000	1.531402
0.165000	1.618045
0.166000	1.601619
0.167000	1.571342
0.168000	1.550406
0.169000	1.506279
0.170000	1.461185
0.171000	1.506279
0.172000	1.691483
0.173000	1.894080
0.174000	2.143704
0.175000	2.286714
0.176000	2.303463
0.177000	2.173337
0.178000	1.886028
0.179000	1.549439
0.180000	1.319142
0.181000	1.185795
0.182000	1.047616
0.183000	1.064365
0.184000	1.148432
0.185000	1.249569
0.186000	1.349096
0.187000	1.310445
0.188000	1.176776
0.189000	1.119765
0.190000	1.173233
0.191000	1.256011
0.192000	1.364557
0.193000	1.705333
0.194000	2.134685
0.195000	2.293156
0.196000	2.306684
0.197000	2.269965
0.198000	1.969451
0.199000	1.642525
0.200000	1.418669
0.201000	1.300460
0.202000	1.501125
0.203000	1.792943
0.204000	1.993608
0.205000	2.139195
0.206000	2.152723
0.207000	1.998761
0.208000	1.758479
0.209000	1.517552
0.210000	1.276303
0.211000	1.144567
0.212000	1.203188
0.213000	1.328160
0.214000	1.447335
0.215000	1.656375
0.216000	1.830628
0.217000	1.903099
0.218000	1.814201
0.219000	1.586158
0.220000	1.303359
0.221000	1.205442
0.222000	1.282745
0.223000	1.380984
0.224000	1.470204
0.225000	1.647678
0.226000	1.843189
0.227000	1.985877
0.228000	2.080251
0.229000	2.110528
0.230000	2.131786
0.231000	2.223261
0.232000	2.155944
0.233000	2.016799
0.234000	1.808403
0.235000	1.536878
0.236000	1.261487
0.237000	1.035377
0.238000	0.963227
0.239000	1.001557
0.240000	1.084657
0.241000	1.194491
0.242000	1.291119
0.243000	1.407073
0.244000	1.474713
0.245000	1.563611
0.246000	1.773617
0.247000	1.914372
0.248000	1.904065
0.249000	1.824186
0.250000	1.648966
0.251000	1.520129
0.252000	1.335891
0.253000	1.215749
0.254000	1.229277
0.255000	1.371321
0.256000	1.435418
0.257000	1.502091
0.258000	1.564578
0.259000	1.585836
0.260000	1.590989
0.261000	1.543319
0.262000	1.438961
0.263000	1.414804
0.264000	1.506601
0.265000	1.648966
0.266000	1.763954
0.267000	1.733677
0.268000	1.647678
0.269000	1.518196
0.270000	1.348130
0.271000	1.339756
0.272000	1.492428
0.273000	1.725625
0.274000	2.038701
0.275000	2.185254
0.276000	2.352099
0.277000	2.355965
0.278000	2.220685
0.279000	1.934342
0.280000	1.518840
0.281000	1.179353
0.282000	0.920067
0.283000	0.822794
0.284000	0.931018
0.285000	1.196102
0.286000	1.576495
0.287000	1.854785
0.288000	2.024529
0.289000	2.021308
0.290000	1.937885
0.291000	1.644779
0.292000	1.386782
0.293000	1.252790
0.294000	1.259876
0.295000	1.385171
0.296000	1.521417
0.297000	1.609027
0.298000	1.651221
0.299000	1.716606
0.300000	1.650255
0.301000	1.421568
0.302000	1.323007
0.303000	1.413193
0.304000	1.461507
0.305000	1.521739
0.306000	1.610315
0.307000	1.645423
0.308000	1.659596
0.309000	1.588413
0.310000	1.510144
0.311000	1.491784
0.312000	1.459897
0.313000	1.404819
0.314000	1.360370
0.315000	1.330415
0.316000	1.328160
0.317000	1.313666
0.318000	1.340400
0.319000	1.261165
0.320000	1.153263
0.321000	1.111069
0.322000	1.180319
0.323000	1.325584
0.324000	1.447335
0.325000	1.643491
0.326000	1.808725
0.327000	1.902777
0.328000	1.958821
0.329000	1.955278
0.330000	1.800995
0.331000	1.623521
0.332000	1.534301
0.333000	1.427043
0.334000	1.333958
0.335000	1.326872
0.336000	1.366167
0.337000	1.341366
0.338000	1.378729
0.339000	1.442182
0.340000	1.537200
0.341000	1.581971
0.342000	1.665071
0.343000	1.688906
0.344000	1.680532
0.345000	1.595499
0.346000	1.435418
0.347000	1.423178
0.348000	1.554593
0.349000	1.779415
0.350000	2.095390
0.351000	2.347590
0.352000	2.415230
0.353000	2.397193
0.354000	2.237111
0.355000	1.877976
0.356000	1.649933
0.357000	1.532368
0.358000	1.519807
0.359000	1.451845
0.360000	1.479867
0.361000	1.447979
0.362000	1.364235
0.363000	1.290475
0.364000	1.259554
0.365000	1.303359
0.366000	1.301104
0.367000	1.314954
0.368000	1.428332
0.369000	1.449590
0.370000	1.501447
0.371000	1.508533
0.372000	1.458931
0.373000	1.394834
0.374000	1.407718
0.375000	1.437995
0.376000	1.500159
0.377000	1.444436
0.378000	1.412227
0.379000	1.485342
0.380000	1.612248
0.381000	1.766853
0.382000	1.872178
0.383000	1.868635
0.384000	1.788755
0.385000	1.671835
0.386000	1.493073
0.387000	1.372287
0.388000	1.435418
0.389000	1.547507
0.390000	1.620622
0.391000	1.637371
0.392000	1.647356
0.393000	1.669903
0.394000	1.617401
0.395000	1.493395
0.396000	1.420601
0.397000	1.436706
0.398000	1.453133
0.399000	1.476968
0.400000	1.502091
0.401000	1.558780
0.402000	1.575529
0.403000	1.643169
0.404000	1.648966
0.405000	1.609671
0.406000	1.588091
0.407000	1.677633
0.408000	1.746883
0.409000	1.727235
0.410000	1.657985
0.411000	1.606128
0.412000	1.556847
0.413000	1.492106
0.414000	1.446691
0.415000	1.469560
0.416000	1.491140
0.417000	1.529147
0.418000	1.538166
0.419000	1.495005
0.420000	1.457320
0.421000	1.515941
0.422000	1.566510
0.423000	1.537522
0.424000	1.495005
0.425000	1.503058
0.426000	1.586802
0.427000	1.765565
0.428000	1.932732
0.429000	2.006814
0.430000	1.944327
0.431000	1.791010
0.432000	1.647678
0.433000	1.544286
0.434000	1.491462
0.435000	1.449590
0.436000	1.405141
0.437000	1.386137
0.438000	1.374542
0.439000	1.416092
0.440000	1.529791
0.441000	1.620300
0.442000	1.625776
0.443000	1.642847
0.444000	1.758801
0.445000	1.878298
0.446000	1.820321
0.447000	1.696636
0.448000	1.587446
0.449000	1.517874
0.450000	1.383561
0.451000	1.265352
0.452000	1.208019
0.453000	1.236041
0.454000	1.326228
0.455000	1.453455
0.456000	1.577784
0.457000	1.592922
0.458000	1.704367
0.459000	1.843834
0.460000	1.969451
0.461000	2.082184
0.462000	2.114393
0.463000	2.002304
0.464000	1.713063
0.465000	1.430586
0.466000	1.315921
0.467000	1.230888
0.468000	1.243127
0.469000	1.258588
0.470000	1.370999
0.471000	1.446047
0.472000	1.434129
0.473000	1.393868
0.474000	1.386137
0.475000	1.479867
0.476000	1.589701
0.477000	1.633828
0.478000	1.610315
0.479000	1.605484
0.480000	1.599686
0.481000	1.575851
0.482000	1.570375
0.483000	1.603229
0.484000	1.637693
0.485000	1.600974
0.486000	1.570697
0.487000	1.506601
0.488000	1.523350
0.489000	1.705333
0.490000	1.848987
0.491000	1.931766
0.492000	1.900844
0.493000	1.747527
0.494000	1.604839
0.495000	1.532368
0.496000	1.544930
0.497000	1.561035
0.498000	1.764276
0.499000	1.903421
0.500000	1.857040
0.501000	1.748494
0.502000	1.615469
0.503000	1.546862
0.504000	1.486631
0.505000	1.447657
0.506000	1.406429
0.507000	1.436062
0.508000	1.494683
0.509000	1.463118
0.510000	1.472459
0.511000	1.476968
0.512000	1.472781
0.513000	1.443470
0.514000	1.458609
0.515000	1.392579
0.516000	1.341366
0.517000	1.383238
0.518000	1.445725
0.519000	1.508855
0.520000	1.601296
0.521000	1.715962
0.522000	1.805504
0.523000	1.787467
0.524000	1.632540
0.525000	1.495649
0.526000	1.384205
0.527000	1.361336
0.528000	1.399021
0.529000	1.562645
0.530000	1.727558
0.531000	1.758479
0.532000	1.697603
0.533000	1.565544
0.534000	1.404497
0.535000	1.230566
0.536000	1.137158
0.537000	1.183540
0.538000	1.368100
0.539000	1.443148
0.540000	1.492428
0.541000	1.713707
0.542000	1.909541
0.543000	2.044499
0.544000	2.070588
0.545000	1.949481
0.546000	1.784568
0.547000	1.581649
0.548000	1.442826
0.549000	1.379051
0.550000	1.390002
0.551000	1.430264
0.552000	1.405785
0.553000	1.381950
0.554000	1.368744
0.555000	1.344587
0.556000	1.266318
0.557000	1.188693
0.558000	1.162282
0.559000	1.189982
0.560000	1.272438
0.561000	1.470848
0.562000	1.752037
0.563000	2.004237
0.564000	2.172048
0.565000	2.169472
0.566000	2.180101
0.567000	2.124056
0.568000	1.978791
0.569000	1.854785
0.570000	1.704367
0.571000	1.616113
0.572000	1.578750
0.573000	1.540743
0.574000	1.562323
0.575000	1.587124
0.576000	1.594210
0.577000	1.526893
0.578000	1.476324
0.579000	1.436062
0.580000	1.411905
0.581000	1.399665
0.582000	1.396122
0.583000	1.332992
0.584000	1.280812
0.585000	1.255045
0.586000	1.332992
0.587000	1.468271
0.588000	1.604195
0.589000	1.701468
0.590000	1.800029
0.591000	1.905676
0.592000	1.931121
0.593000	1.855751
0.594000	1.659596
0.595000	1.423822
0.596000	1.305936
0.597000	1.228311
0.598000	1.180963
0.599000	1.197712
0.600000	1.310123
0.601000	1.501769
0.602000	1.644779
0.603000	1.710486
0.604000	1.746883
0.605000	1.675056
0.606000	1.571342
0.607000	1.506601
0.608000	1.514331
0.609000	1.589057
0.610000	1.576817
0.611000	1.488241
0.612000	1.447657
0.613000	1.439605
0.614000	1.452811
0.615000	1.537522
0.616000	1.658629
0.617000	1.767819
0.618000	1.846088
0.619000	1.846088
0.620000	1.681176
0.621000	1.531724
0.622000	1.447657
0.623000	1.403530
0.624000	1.382594
0.625000	1.446691
0.626000	1.504990
0.627000	1.516263
0.628000	1.498870
0.629000	1.484054
0.630000	1.488563
0.631000	1.454099
0.632000	1.447013
0.633000	1.521095
0.634000	1.692449
0.635000	1.905354
0.636000	2.009390
0.637000	2.018731
0.638000	1.886672
0.639000	1.705977
0.640000	1.495005
0.641000	1.324617
0.642000	1.228311
0.643000	1.268895
0.644000	1.426399
0.645000	1.563933
0.646000	1.736898
0.647000	1.824186
0.648000	1.772651
0.649000	1.666682
0.650000	1.615791
0.651000	1.621588
0.652000	1.725303
0.653000	1.756546
0.654000	1.746883
0.655000	1.672479
0.656000	1.620622
0.657000	1.657985
0.658000	1.761377
0.659000	1.907286
0.660000	1.988132
0.661000	1.987810
0.662000	1.827085
0.663000	1.554593
0.664000	1.330415
0.665000	1.219292
0.666000	1.145211
0.667000	1.167113
0.668000	1.246348
0.669000	1.394834
0.670000	1.579716
0.671000	1.693738
0.672000	1.696636
0.673000	1.630285
0.674000	1.585514
0.675000	1.478901
0.676000	1.299494
0.677000	1.213495
0.678000	1.316243
0.679000	1.406107
0.680000	1.439605
0.681000	1.432519
0.682000	1.488885
0.683000	1.532690
0.684000	1.574240
0.685000	1.579394
0.686000	1.498548
0.687000	1.438961
0.688000	1.459897
0.689000	1.420924
0.690000	1.380340
0.691000	1.443148
0.692000	1.537522
0.693000	1.676344
0.694000	1.752037
0.695000	1.748172
0.696000	1.657985
0.697000	1.561679
0.698000	1.444759
0.699000	1.409328
0.700000	1.437672
0.701000	1.564578
0.702000	1.701146
0.703000	1.770074
0.704000	1.791010
0.705000	1.749138
0.706000	1.750426
0.707000	1.741408
0.708000	1.750748
0.709000	1.803250
0.710000	1.849631
0.711000	1.750748
0.712000	1.590667
0.713000	1.395478
0.714000	1.282423
0.715000	1.274693
0.716000	1.355538
0.717000	1.438961
0.718000	1.495649
0.719000	1.599364
0.720000	1.712419
0.721000	1.754936
0.722000	1.685363
0.723000	1.600652
0.724000	1.550406
0.725000	1.508533
0.726000	1.475680
0.727000	1.449590
0.728000	1.455066
0.729000	1.446047
0.730000	1.418669
0.731000	1.328160
0.732000	1.276303
0.733000	1.276303
0.734000	1.367456
0.735000	1.499837
0.736000	1.580682
0.737000	1.632862
0.738000	1.600974
0.739000	1.533979
0.740000	1.491140
0.741000	1.506923
0.742000	1.607094
0.743000	1.768464
0.744000	1.878942
0.745000	1.923069
0.746000	1.906320
0.747000	1.849309
0.748000	1.745273
0.749000	1.600008
0.750000	1.410294
0.751000	1.364557
0.752000	1.401276
0.753000	1.491784
0.754000	1.578428
0.755000	1.653798
0.756000	1.708232
0.757000	1.707588
0.758000	1.762666
0.759000	1.697925
0.760000	1.498870
0.761000	1.405785
0.762000	1.378085
0.763000	1.374542
0.764000	1.391935
0.765000	1.397733
0.766000	1.408040
0.767000	1.436384
0.768000	1.520129
0.769000	1.611926
0.770000	1.666360
0.771000	1.618045
0.772000	1.615469
0.773000	1.760733
0.774000	1.809047
0.775000	1.733677
0.776000	1.698247
0.777000	1.627064
0.778000	1.563289
0.779000	1.544608
0.780000	1.524638
0.781000	1.516263
0.782000	1.479867
0.783000	1.429620
0.784000	1.363591
0.785000	1.311089
0.786000	1.263419
0.787000	1.323973
0.788000	1.581971
0.789000	1.800351
0.790000	1.888605
0.791000	1.840613
0.792000	1.691161
0.793000	1.553304
0.794000	1.490496
0.795000	1.521739
0.796000	1.565222
0.797000	1.635438
0.798000	1.698247
0.799000	1.722726
0.800000	1.697603
0.801000	1.672801
0.802000	1.623199
0.803000	1.615469
0.804000	1.610637
0.805000	1.543964
0.806000	1.499192
0.807000	1.514975
0.808000	1.533979
0.809000	1.484698
0.810000	1.519484
0.811000	1.625454
0.812000	1.743984
0.813000	1.818388
0.814000	1.816456
0.815000	1.702434
0.816000	1.543642
0.817000	1.479545
0.818000	1.401276
0.819000	1.297239
0.820000	1.251502
0.821000	1.292730
0.822000	1.421568
0.823000	1.588091
0.824000	1.689872
0.825000	1.669580
0.826000	1.682464
0.827000	1.722082
0.828000	1.748494
0.829000	1.710486
0.830000	1.679888
0.831000	1.669258
0.832000	1.597753
0.833000	1.480833
0.834000	1.431553
0.835000	1.422212
0.836000	1.390002
0.837000	1.407396
0.838000	1.464406
0.839000	1.568765
0.840000	1.733999
0.841000	1.787145
0.842000	1.762666
0.843000	1.705011
0.844000	1.692127
0.845000	1.652509
0.846000	1.621266
0.847000	1.643169
0.848000	1.666682
0.849000	1.525282
0.850000	1.301749
0.851000	1.142634
0.852000	1.140057
0.853000	1.286932
0.854000	1.486309
0.855000	1.613536
0.856000	1.733999
0.857000	1.762022
0.858000	1.743662
0.859000	1.655730
0.860000	1.582615
0.861000	1.468593
0.862000	1.401276
0.863000	1.388070
0.864000	1.441860
0.865000	1.477934
0.866000	1.524638
0.867000	1.635438
0.868000	1.733033
0.869000	1.642202
0.870000	1.538810
0.871000	1.426399
0.872000	1.370999
0.873000	1.340078
0.874000	1.380340
0.875000	1.467305
0.876000	1.564900
0.877000	1.594532
0.878000	1.548795
0.879000	1.489852
0.880000	1.468916
0.881000	1.573596
0.882000	1.686651
0.883000	1.823220
0.884000	1.955278
0.885000	2.001982
0.886000	1.944005
0.887000	1.768464
0.888000	1.586158
0.889000	1.400632
0.890000	1.255367
0.891000	1.270828
0.892000	1.446691
0.893000	1.529147
0.894000	1.514009
0.895000	1.553304
0.896000	1.594855
0.897000	1.665393
0.898000	1.764598
0.899000	1.843512
0.900000	1.911151
0.901000	1.861871
0.902000	1.666037
0.903000	1.463440
0.904000	1.347808
0.905000	1.277592
0.906000	1.261487
0.907000	1.287576
0.908000	1.435418
0.909000	1.546218
0.910000	1.572630
0.911000	1.503702
0.912000	1.466983
0.913000	1.582293
0.914000	1.715318
0.915000	1.792621
0.916000	1.758156
0.917000	1.686007
0.918000	1.611281
0.919000	1.589379
0.920000	1.498870
0.921000	1.357793
0.922000	1.293696
0.923000	1.302393
0.924000	1.366167
0.925000	1.420924
0.926000	1.497260
0.927000	1.606450
0.928000	1.736576
0.929000	1.828695
0.930000	1.869279
0.931000	1.902133
0.932000	1.868957
0.933000	1.781669
0.934000	1.723370
0.935000	1.644457
0.936000	1.569409
0.937000	1.505312
0.938000	1.485987
0.939000	1.488563
0.940000	1.481155
0.941000	1.471814
0.942000	1.417380
0.943000	1.461507
0.944000	1.549117
0.945000	1.655730
0.946000	1.776194
0.947000	1.757834
0.948000	1.630607
0.949000	1.390325
0.950000	1.232498
0.951000	1.220903
0.952000	1.332025
0.953000	1.416414
0.954000	1.507245
0.955000	1.629963
0.956000	1.647678
0.957000	1.629963
0.958000	1.607416
0.959000	1.638659
0.960000	1.739797
0.961000	1.777482
0.962000	1.750426
0.963000	1.688262
0.964000	1.739153
0.965000	1.711775
0.966000	1.604195
0.967000	1.508855
0.968000	1.515619
0.969000	1.522383
0.970000	1.437350
0.971000	1.389680
0.972000	1.399987
0.973000	1.476002
0.974000	1.593888
0.975000	1.687940
0.976000	1.701790
0.977000	1.678599
0.978000	1.654764
0.979000	1.614824
0.980000	1.632862
0.981000	1.623843
0.982000	1.591956
0.983000	1.619012
0.984000	1.708554
0.985000	1.880552
0.986000	1.883129
0.987000	1.796808
0.988000	1.635438
0.989000	1.417380
0.990000	1.263419
0.991000	1.213173
0.992000	1.162604
0.993000	1.113323
0.994000	1.216071
0.995000	1.314954
0.996000	1.360692
0.997000	1.421246
0.998000	1.438961
0.999000	1.460863
1.000000	1.508533
1.001000	1.620622
1.002000	1.645101
1.003000	1.658629
1.004000	1.646068
1.005000	1.622233
1.006000	1.633506
1.007000	1.654120
1.008000	1.559746
1.009000	1.483410
1.010000	1.453777
1.011000	1.479223
1.012000	1.527859
1.013000	1.572308
1.014000	1.576173
1.015000	1.575207
1.016000	1.558136
1.017000	1.540421
1.018000	1.521739
1.019000	1.569409
1.020000	1.602907
1.021000	1.615147
1.022000	1.652832
1.023000	1.655408
1.024000	1.614824
1.025000	1.579072
1.026000	1.515619
